	Heli-BoseOn		
Frequency (Hz)	Level (dB)

11.139739	-63.17
11.301211	-62.77
11.465025	-62.45
11.631213	-62.20
11.799810	-62.03
11.970850	-61.96
12.144370	-61.97
12.320405	-62.05
12.498992	-62.21
12.680168	-62.48
12.863969	-62.79
13.050435	-63.14
13.239604	-63.54
13.431515	-64.04
13.626208	-64.49
13.823722	-64.97
14.024100	-65.54
14.227382	-66.02
14.433611	-66.56
14.642829	-67.05
14.855080	-67.44
15.070408	-67.74
15.288856	-67.86
15.510471	-67.90
15.735299	-67.86
15.963385	-67.78
16.194778	-67.62
16.429525	-67.37
16.667674	-66.98
16.909275	-66.61
17.154379	-66.30
17.403035	-66.06
17.655296	-65.71
17.911213	-65.05
18.170840	-64.08
18.434230	-63.12
18.701438	-62.57
18.972519	-62.23
19.247530	-61.20
19.526527	-58.66
19.809568	-55.39
20.096712	-52.33
20.388018	-49.65
20.683546	-47.13
20.983358	-44.53
21.287517	-41.77
21.596084	-39.01
21.909123	-36.47
22.226701	-34.28
22.548881	-32.48
22.875732	-31.05
23.207320	-30.08
23.543715	-29.48
23.884986	-29.20
24.231204	-29.22
24.582441	-29.49
24.938768	-30.08
25.300261	-30.92
25.666993	-32.26
26.039042	-34.04
26.416483	-36.65
26.799396	-39.99
27.187858	-44.37
27.581952	-49.36
27.981758	-52.74
28.387360	-54.61
28.798840	-56.67
29.216286	-58.42
29.639782	-58.75
30.069416	-58.79
30.505279	-59.02
30.947459	-59.06
31.396049	-58.91
31.851141	-58.66
32.312830	-58.17
32.781212	-57.38
33.256382	-56.43
33.738440	-55.38
34.227486	-54.30
34.723620	-53.41
35.226947	-52.82
35.737568	-52.50
36.255592	-52.25
36.781124	-51.78
37.314274	-50.38
37.855152	-47.59
38.403871	-44.49
38.960543	-42.10
39.525284	-40.80
40.098211	-40.51
40.679443	-41.05
41.269100	-42.33
41.867304	-44.52
42.474180	-48.07
43.089852	-53.42
43.714448	-58.86
44.348098	-59.96
44.990933	-59.52
45.643086	-58.92
46.304692	-58.48
46.975888	-58.42
47.656813	-58.71
48.347609	-59.13
49.048418	-59.28
49.759385	-58.99
50.480657	-58.46
51.212385	-58.25
51.954719	-58.89
52.707813	-59.93
53.471824	-59.92
54.246909	-58.96
55.033230	-57.96
55.830948	-57.19
56.640229	-54.42
57.461241	-49.40
58.294153	-44.99
59.139139	-41.67
59.996373	-40.15
60.866033	-40.96
61.748299	-43.99
62.643354	-48.73
63.551382	-55.60
64.472573	-61.47
65.407116	-62.13
66.355206	-63.21
67.317038	-64.50
68.292813	-65.20
69.282731	-64.56
70.286999	-62.57
71.305824	-60.31
72.339416	-59.26
73.387991	-59.69
74.451765	-61.57
75.530959	-64.06
76.625796	-64.88
77.736503	-64.42
78.863310	-64.49
80.006450	-62.81
81.166160	-60.83
82.342680	-60.34
83.536255	-61.11
84.747130	-61.32
85.975557	-62.82
87.221791	-65.40
88.486089	-65.38
89.768713	-63.91
91.069929	-63.55
92.390007	-64.81
93.729219	-66.18
95.087844	-66.16
96.466162	-61.29
97.864459	-51.83
99.283025	-45.81
100.722153	-45.75
102.182141	-50.64
103.663293	-63.11
105.165914	-70.43
106.690316	-64.76
108.236814	-62.34
109.805729	-65.24
111.397386	-70.65
113.012114	-72.40
114.650248	-69.57
116.312128	-68.44
117.998096	-71.82
119.708503	-75.62
121.443703	-70.40
123.204054	-66.01
124.989923	-65.98
126.801678	-68.31
128.639694	-68.57
130.504354	-69.35
132.396041	-68.60
134.315150	-67.54
136.262076	-68.96
138.237223	-71.60
140.241000	-71.71
142.273823	-70.50
144.336111	-67.94
146.428293	-67.41
148.550802	-66.58
150.704076	-70.74
152.888563	-71.59
155.104715	-73.69
157.352990	-71.85
159.633854	-74.06
161.947780	-76.46
164.295247	-75.41
166.676741	-74.84
169.092755	-73.70
171.543790	-73.32
174.030353	-76.45
176.552959	-66.61
179.112131	-54.37
181.708398	-56.06
184.342299	-70.24
187.014379	-77.91
189.725192	-77.43
192.475298	-78.72
195.265267	-78.86
198.095678	-78.20
200.967116	-77.16
203.880176	-75.60
206.835462	-75.41
209.833585	-76.13
212.875166	-75.31
215.960836	-75.30
219.091233	-74.70
222.267006	-75.33
225.488813	-73.75
228.757320	-72.73
232.073205	-76.94
235.437154	-79.24
238.849865	-78.77
242.312043	-78.84
245.824407	-78.62
249.387683	-83.02
253.002609	-80.76
256.669935	-77.64
260.390419	-77.11
264.164832	-76.00
267.993956	-74.39
271.878584	-76.50
275.819521	-74.90
279.817582	-74.31
283.873596	-77.95
287.988403	-77.69
292.162855	-76.88
296.397817	-77.98
300.694165	-79.34
305.052789	-78.17
309.474593	-79.71
313.960491	-78.43
318.511414	-77.84
323.128303	-77.24
327.812115	-75.83
332.563820	-75.07
337.384402	-60.52
342.274859	-59.20
347.236204	-82.90
352.269465	-81.70
357.375684	-80.16
362.555919	-78.06
367.811243	-80.38
373.142743	-79.72
378.551525	-83.85
384.038708	-81.14
389.605429	-82.22
395.252841	-81.07
400.982113	-81.68
406.794432	-82.28
412.691002	-81.03
418.673044	-84.06
424.741797	-81.94
430.898518	-83.48
437.144481	-78.69
443.480981	-78.30
449.909331	-82.41
456.430860	-80.06
463.046920	-83.49
469.758882	-83.09
476.568134	-83.64
483.476089	-85.52
490.484175	-86.79
497.593845	-87.29
504.806572	-85.97
512.123848	-86.81
519.547190	-87.67
527.078134	-83.42
534.718242	-80.77
542.469094	-84.51
550.332296	-87.46
558.309477	-82.85
566.402289	-83.29
574.612408	-84.86
582.941535	-85.55
591.391394	-86.67
599.963735	-64.20
608.660334	-84.89
617.482992	-86.28
626.433537	-86.75
635.513821	-87.52
644.725726	-89.62
654.071160	-90.27
663.552057	-87.38
673.170382	-87.17
682.928127	-86.13
692.827312	-87.59
702.869989	-89.22
713.058235	-88.12
723.394163	-89.53
733.879912	-88.82
744.517654	-88.06
755.309592	-88.42
766.257962	-87.83
777.365030	-87.31
788.633098	-87.90
800.064499	-85.52
811.661600	-85.45
823.426804	-84.19
835.362547	-88.05
847.471301	-89.97
859.755574	-89.95
872.217910	-88.43
884.860890	-87.90
897.687132	-87.30
910.699294	-89.83
923.900070	-89.03
937.292194	-88.71
950.878439	-86.40
964.661620	-85.51
978.644591	-87.35
992.830248	-68.79
1007.221529	-68.33
1021.821414	-86.42
1036.632928	-87.01
1051.659138	-85.84
1066.903156	-89.29
1082.368140	-86.88
1098.057291	-89.09
1113.973860	-87.48
1130.121143	-86.71
1146.502484	-87.96
1163.121276	-87.73
1179.980961	-88.14
1197.085030	-92.54
1214.437027	-89.20
1232.040544	-91.34
1249.899229	-91.52
1268.016778	-93.57
1286.396945	-92.74
1305.043536	-92.08
1323.960414	-93.03
1343.151496	-94.43
1362.620756	-93.87
1382.372227	-92.58
1402.410000	-94.56
1422.738225	-93.98
1443.361112	-95.84
1464.282931	-96.75
1485.508017	-96.08
1507.040765	-96.48
1528.885634	-98.12
1551.047150	-98.37
1573.529901	-101.15
1596.338544	-102.17
1619.477804	-102.09
1642.952471	-102.28
1666.767409	-103.33
1690.927550	-104.22
1715.437896	-105.32
1740.303526	-105.23
1765.529587	-103.67
1791.121306	-103.81
1817.083982	-104.04
1843.422992	-104.01
1870.143792	-102.92
1897.251916	-76.73
1924.752977	-101.76
1952.652672	-105.17
1980.956779	-104.69
2009.671159	-104.73
2038.801761	-105.44
2068.354617	-106.08
2098.335847	-103.99
2128.751662	-103.67
2159.608360	-104.59
2190.912333	-104.36
2222.670063	-101.96
2254.888128	-100.73
2287.573200	-101.27
2320.732050	-100.84
2354.371544	-101.66
2388.498649	-100.28
2423.120434	-101.47
2458.244069	-101.11
2493.876828	-100.66
2530.026092	-101.77
2566.699346	-101.89
2603.904187	-103.33
2641.648320	-101.44
2679.939562	-103.75
2718.785844	-103.34
2758.195211	-103.89
2798.175824	-104.25
2838.735965	-105.50
2879.884033	-107.04
2921.628551	-108.10
2963.978165	-107.90
3006.941645	-111.46
3050.527890	-110.93
3094.745927	-113.76
3139.604913	-111.72
3185.114139	-109.76
3231.283032	-109.53
3278.121151	-111.84
3325.638200	-112.65
3373.844017	-110.73
3422.748588	-113.00
3472.362041	-110.86
3522.694651	-96.18
3573.756843	-115.02
3625.559192	-114.76
3678.112427	-114.60
3731.427432	-113.80
3785.515249	-113.50
3840.387080	-111.89
3896.054290	-113.90
3952.528408	-114.64
4009.821129	-116.96
4067.944321	-115.62
4126.910020	-116.33
4186.730440	-116.83
4247.417969	-116.75
4308.985176	-115.93
4371.444813	-116.03
4434.809815	-114.99
4499.093306	-91.67
4564.308599	-116.24
4630.469202	-117.76
4697.588817	-117.30
4765.681344	-117.23
4834.760887	-117.68
4904.841752	-118.22
4975.938453	-119.02
5048.065717	-119.29
5121.238480	-118.48
5195.471897	-117.65
5270.781343	-117.79
5347.182415	-117.20
5424.690937	-117.45
5503.322961	-116.67
5583.094772	-117.28
5664.022893	-116.35
5746.124083	-118.02
5829.415347	-117.43
5913.913936	-117.35
5999.637349	-116.93
6086.603340	-118.10
6174.829922	-117.09
6264.335367	-116.60
6355.138211	-116.33
6447.257262	-115.76
6540.711597	-116.01
6635.520573	-115.87
6731.703824	-116.35
6829.281272	-116.55
6928.273125	-116.09
7028.699885	-115.41
7130.582353	-114.47
7233.941627	-115.24
7338.799116	-115.49
7445.176537	-115.94
7553.095920	-116.67
7662.579617	-117.62
7773.650302	-117.91
7886.330981	-117.26
8000.644989	-118.47
8116.616003	-118.40
8234.268041	-118.46
8353.625470	-118.76
8474.713009	-118.86
8597.555737	-119.07
8722.179097	-119.36
8848.608897	-119.92
8976.871324	-119.66
9106.992942	-119.03
9239.000700	-118.54
9372.921937	-118.47
9508.784391	-118.64
9646.616199	-118.55
9786.445908	-120.18
9928.302478	-120.81
10072.215288	-120.59
10218.214144	-121.28
10366.329284	-121.41
10516.591384	-121.07
10669.031565	-120.33
10823.681397	-120.74
10980.572911	-119.79
11139.738600	-120.40
11301.211429	-121.30
11465.024840	-121.41
11631.212760	-121.47
11799.809609	-120.90
11970.850305	-120.81
12144.370271	-119.60
12320.405445	-119.69
12498.992285	-119.50
12680.167779	-118.74
12863.969449	-119.02
13050.435363	-119.24
13239.604139	-120.08
13431.514956	-121.26
13626.207560	-121.76
13823.722274	-121.86
14024.100004	-120.23
14227.382252	-119.97
14433.611118	-121.65
14642.829314	-121.81
14855.080172	-122.17
15070.407650	-121.88
15288.856344	-122.26
15510.471498	-122.54
15735.299010	-122.97
15963.385443	-122.64
16194.778036	-122.73
16429.524714	-122.64
16667.674093	-122.18
16909.275497	-122.11
17154.378963	-122.50
17403.035256	-122.05
17655.295873	-122.54
17911.213060	-121.73
18170.839820	-122.22
18434.229924	-122.22
18701.437922	-122.07
18972.519156	-122.26
19247.529769	-121.62
19526.526718	-122.05
19809.567786	-121.65
20096.711592	-121.64
20388.017608	-121.67
20683.546166	-121.46
20983.358471	-121.25
21287.516618	-121.69
21596.083601	-121.61
21909.123326	-121.25
22226.700627	-121.19