	Bang-BoseOn		
Frequency (Hz)	Level (dB)

11.139739	-74.07
11.301211	-73.97
11.465025	-73.89
11.631213	-73.82
11.799810	-73.78
11.970850	-73.75
12.144370	-73.76
12.320405	-73.78
12.498992	-73.83
12.680168	-73.93
12.863969	-74.04
13.050435	-74.16
13.239604	-74.31
13.431515	-74.52
13.626208	-74.69
13.823722	-74.87
14.024100	-75.04
14.227382	-75.11
14.433611	-75.08
14.642829	-74.91
14.855080	-74.61
15.070408	-74.15
15.288856	-73.65
15.510471	-73.06
15.735299	-72.52
15.963385	-71.97
16.194778	-71.46
16.429525	-71.02
16.667674	-70.58
16.909275	-70.22
17.154379	-69.89
17.403035	-69.58
17.655296	-69.31
17.911213	-69.08
18.170840	-68.87
18.434230	-68.69
18.701438	-68.54
18.972519	-68.43
19.247530	-68.34
19.526527	-68.27
19.809568	-68.22
20.096712	-68.16
20.388018	-68.06
20.683546	-67.91
20.983358	-67.71
21.287517	-67.45
21.596084	-67.13
21.909123	-66.78
22.226701	-66.40
22.548881	-66.02
22.875732	-65.66
23.207320	-65.39
23.543715	-65.23
23.884986	-65.19
24.231204	-65.24
24.582441	-65.36
24.938768	-65.49
25.300261	-65.57
25.666993	-65.62
26.039042	-65.65
26.416483	-65.68
26.799396	-65.73
27.187858	-65.79
27.581952	-65.84
27.981758	-65.83
28.387360	-65.75
28.798840	-65.63
29.216286	-65.52
29.639782	-65.45
30.069416	-65.45
30.505279	-65.54
30.947459	-65.74
31.396049	-66.03
31.851141	-66.30
32.312830	-66.37
32.781212	-66.07
33.256382	-65.37
33.738440	-64.38
34.227486	-63.15
34.723620	-61.75
35.226947	-60.19
35.737568	-58.67
36.255592	-57.48
36.781124	-56.75
37.314274	-56.48
37.855152	-56.62
38.403871	-57.14
38.960543	-58.05
39.525284	-59.24
40.098211	-60.43
40.679443	-61.32
41.269100	-61.76
41.867304	-61.81
42.474180	-61.89
43.089852	-62.43
43.714448	-63.47
44.348098	-64.68
44.990933	-65.77
45.643086	-66.79
46.304692	-67.72
46.975888	-67.76
47.656813	-66.07
48.347609	-63.28
49.048418	-60.59
49.759385	-58.69
50.480657	-57.63
51.212385	-57.38
51.954719	-58.02
52.707813	-59.00
53.471824	-59.01
54.246909	-58.33
55.033230	-57.93
55.830948	-57.69
56.640229	-57.37
57.461241	-57.05
58.294153	-56.90
59.139139	-57.06
59.996373	-57.15
60.866033	-56.47
61.748299	-55.56
62.643354	-55.00
63.551382	-54.70
64.472573	-53.34
65.407116	-50.85
66.355206	-49.14
67.317038	-48.70
68.292813	-49.80
69.282731	-52.07
70.286999	-54.00
71.305824	-54.31
72.339416	-54.51
73.387991	-54.78
74.451765	-52.86
75.530959	-50.11
76.625796	-48.61
77.736503	-48.65
78.863310	-49.73
80.006450	-49.75
81.166160	-49.23
82.342680	-49.14
83.536255	-49.12
84.747130	-49.74
85.975557	-49.44
87.221791	-48.43
88.486089	-47.00
89.768713	-46.03
91.069929	-46.42
92.390007	-46.84
93.729219	-45.96
95.087844	-46.65
96.466162	-49.25
97.864459	-51.24
99.283025	-51.75
100.722153	-53.60
102.182141	-56.77
103.663293	-57.83
105.165914	-57.64
106.690316	-57.06
108.236814	-57.77
109.805729	-58.00
111.397386	-58.07
113.012114	-61.23
114.650248	-64.47
116.312128	-62.94
117.998096	-59.02
119.708503	-54.18
121.443703	-52.19
123.204054	-50.44
124.989923	-46.48
126.801678	-46.23
128.639694	-48.22
130.504354	-47.17
132.396041	-47.55
134.315150	-50.61
136.262076	-51.08
138.237223	-50.37
140.241000	-48.56
142.273823	-49.12
144.336111	-48.19
146.428293	-48.37
148.550802	-47.62
150.704076	-47.40
152.888563	-49.64
155.104715	-52.39
157.352990	-54.49
159.633854	-53.50
161.947780	-54.55
164.295247	-58.19
166.676741	-53.08
169.092755	-52.31
171.543790	-53.60
174.030353	-52.06
176.552959	-54.63
179.112131	-58.46
181.708398	-60.38
184.342299	-61.85
187.014379	-59.75
189.725192	-62.21
192.475298	-69.24
195.265267	-66.22
198.095678	-60.36
200.967116	-59.81
203.880176	-62.34
206.835462	-61.69
209.833585	-59.05
212.875166	-56.35
215.960836	-59.74
219.091233	-55.65
222.267006	-56.43
225.488813	-62.15
228.757320	-58.74
232.073205	-60.92
235.437154	-61.30
238.849865	-58.63
242.312043	-58.84
245.824407	-60.94
249.387683	-64.83
253.002609	-69.35
256.669935	-77.04
260.390419	-74.13
264.164832	-68.82
267.993956	-65.58
271.878584	-65.42
275.819521	-65.08
279.817582	-64.75
283.873596	-60.84
287.988403	-59.12
292.162855	-58.34
296.397817	-59.19
300.694165	-58.35
305.052789	-56.87
309.474593	-59.16
313.960491	-59.13
318.511414	-56.93
323.128303	-57.41
327.812115	-57.18
332.563820	-59.73
337.384402	-62.92
342.274859	-58.42
347.236204	-58.92
352.269465	-60.23
357.375684	-58.01
362.555919	-53.03
367.811243	-58.62
373.142743	-57.55
378.551525	-61.74
384.038708	-58.40
389.605429	-54.97
395.252841	-61.22
400.982113	-59.15
406.794432	-59.07
412.691002	-57.50
418.673044	-57.47
424.741797	-58.70
430.898518	-55.45
437.144481	-54.21
443.480981	-54.32
449.909331	-57.07
456.430860	-58.97
463.046920	-59.08
469.758882	-59.54
476.568134	-59.39
483.476089	-63.75
490.484175	-65.67
497.593845	-65.50
504.806572	-69.58
512.123848	-73.00
519.547190	-72.03
527.078134	-66.74
534.718242	-68.36
542.469094	-68.00
550.332296	-66.29
558.309477	-60.83
566.402289	-60.63
574.612408	-60.40
582.941535	-66.67
591.391394	-64.78
599.963735	-59.57
608.660334	-59.83
617.482992	-64.32
626.433537	-64.85
635.513821	-66.05
644.725726	-69.02
654.071160	-71.82
663.552057	-68.82
673.170382	-70.22
682.928127	-70.70
692.827312	-70.56
702.869989	-69.36
713.058235	-70.12
723.394163	-71.25
733.879912	-68.44
744.517654	-70.46
755.309592	-70.33
766.257962	-69.48
777.365030	-70.40
788.633098	-70.14
800.064499	-66.54
811.661600	-67.36
823.426804	-67.53
835.362547	-69.47
847.471301	-67.24
859.755574	-66.84
872.217910	-67.73
884.860890	-66.09
897.687132	-62.69
910.699294	-64.68
923.900070	-65.39
937.292194	-64.00
950.878439	-63.92
964.661620	-67.59
978.644591	-66.44
992.830248	-67.12
1007.221529	-65.15
1021.821414	-66.59
1036.632928	-60.17
1051.659138	-62.16
1066.903156	-62.15
1082.368140	-61.81
1098.057291	-64.63
1113.973860	-66.65
1130.121143	-65.41
1146.502484	-66.37
1163.121276	-69.06
1179.980961	-70.08
1197.085030	-69.57
1214.437027	-71.96
1232.040544	-72.62
1249.899229	-72.28
1268.016778	-71.42
1286.396945	-73.27
1305.043536	-68.72
1323.960414	-70.35
1343.151496	-70.09
1362.620756	-68.84
1382.372227	-71.20
1402.410000	-70.22
1422.738225	-68.73
1443.361112	-68.82
1464.282931	-70.42
1485.508017	-72.37
1507.040765	-72.99
1528.885634	-74.98
1551.047150	-78.85
1573.529901	-81.35
1596.338544	-80.14
1619.477804	-75.87
1642.952471	-80.71
1666.767409	-80.82
1690.927550	-79.08
1715.437896	-78.76
1740.303526	-79.23
1765.529587	-77.63
1791.121306	-80.27
1817.083982	-79.28
1843.422992	-79.07
1870.143792	-78.64
1897.251916	-79.92
1924.752977	-75.98
1952.652672	-75.75
1980.956779	-73.65
2009.671159	-75.99
2038.801761	-75.22
2068.354617	-76.00
2098.335847	-78.41
2128.751662	-80.17
2159.608360	-83.88
2190.912333	-85.76
2222.670063	-82.64
2254.888128	-77.33
2287.573200	-76.14
2320.732050	-76.85
2354.371544	-81.13
2388.498649	-82.31
2423.120434	-86.55
2458.244069	-81.90
2493.876828	-81.75
2530.026092	-78.52
2566.699346	-78.88
2603.904187	-82.45
2641.648320	-82.10
2679.939562	-81.89
2718.785844	-82.94
2758.195211	-81.46
2798.175824	-82.82
2838.735965	-82.47
2879.884033	-83.58
2921.628551	-80.68
2963.978165	-80.49
3006.941645	-83.85
3050.527890	-84.10
3094.745927	-84.67
3139.604913	-84.84
3185.114139	-84.57
3231.283032	-84.19
3278.121151	-84.46
3325.638200	-82.74
3373.844017	-84.22
3422.748588	-83.83
3472.362041	-83.53
3522.694651	-83.70
3573.756843	-83.24
3625.559192	-83.27
3678.112427	-82.65
3731.427432	-82.80
3785.515249	-81.05
3840.387080	-81.76
3896.054290	-82.25
3952.528408	-83.71
4009.821129	-83.24
4067.944321	-83.29
4126.910020	-83.53
4186.730440	-83.22
4247.417969	-83.98
4308.985176	-83.15
4371.444813	-83.83
4434.809815	-84.06
4499.093306	-85.04
4564.308599	-85.87
4630.469202	-87.61
4697.588817	-88.47
4765.681344	-89.73
4834.760887	-90.47
4904.841752	-92.14
4975.938453	-93.47
5048.065717	-93.17
5121.238480	-92.44
5195.471897	-92.65
5270.781343	-94.92
5347.182415	-95.16
5424.690937	-94.74
5503.322961	-96.24
5583.094772	-99.25
5664.022893	-97.95
5746.124083	-99.11
5829.415347	-98.16
5913.913936	-96.62
5999.637349	-95.65
6086.603340	-95.53
6174.829922	-97.82
6264.335367	-96.28
6355.138211	-96.82
6447.257262	-96.33
6540.711597	-95.80
6635.520573	-96.42
6731.703824	-96.20
6829.281272	-98.17
6928.273125	-98.69
7028.699885	-97.21
7130.582353	-97.17
7233.941627	-98.48
7338.799116	-99.02
7445.176537	-99.17
7553.095920	-97.57
7662.579617	-97.12
7773.650302	-97.62
7886.330981	-99.50
8000.644989	-100.05
8116.616003	-100.71
8234.268041	-101.39
8353.625470	-101.05
8474.713009	-101.35
8597.555737	-100.92
8722.179097	-101.23
8848.608897	-101.85
8976.871324	-103.53
9106.992942	-102.72
9239.000700	-102.82
9372.921937	-103.48
9508.784391	-102.88
9646.616199	-104.82
9786.445908	-106.96
9928.302478	-109.01
10072.215288	-109.73
10218.214144	-109.66
10366.329284	-110.05
10516.591384	-109.55
10669.031565	-110.42
10823.681397	-110.10
10980.572911	-110.83
11139.738600	-112.55
11301.211429	-111.99
11465.024840	-112.68
11631.212760	-113.09
11799.809609	-113.97
11970.850305	-114.51
12144.370271	-114.51
12320.405445	-113.10
12498.992285	-110.81
12680.167779	-110.74
12863.969449	-110.67
13050.435363	-111.75
13239.604139	-115.06
13431.514956	-116.90
13626.207560	-118.26
13823.722274	-119.56
14024.100004	-120.41
14227.382252	-120.03
14433.611118	-120.30
14642.829314	-120.69
14855.080172	-120.89
15070.407650	-121.53
15288.856344	-121.41
15510.471498	-121.57
15735.299010	-122.26
15963.385443	-121.69
16194.778036	-121.96
16429.524714	-122.22
16667.674093	-121.63
16909.275497	-122.33
17154.378963	-122.16
17403.035256	-122.00
17655.295873	-121.77
17911.213060	-122.10
18170.839820	-121.71
18434.229924	-121.97
18701.437922	-121.97
18972.519156	-121.86
19247.529769	-121.67
19526.526718	-121.47
19809.567786	-121.38
20096.711592	-121.13
20388.017608	-121.35
20683.546166	-121.07
20983.358471	-121.43
21287.516618	-120.85
21596.083601	-121.29
21909.123326	-121.29
22226.700627	-121.35