	Heli-Janick		
Frequency (Hz)	Level (dB)

11.139739	-69.61
11.301211	-69.21
11.465025	-68.81
11.631213	-68.42
11.799810	-68.01
11.970850	-67.63
12.144370	-67.29
12.320405	-66.97
12.498992	-66.69
12.680168	-66.43
12.863969	-66.24
13.050435	-66.12
13.239604	-66.06
13.431515	-66.07
13.626208	-66.14
13.823722	-66.26
14.024100	-66.44
14.227382	-66.58
14.433611	-66.71
14.642829	-66.73
14.855080	-66.62
15.070408	-66.37
15.288856	-66.02
15.510471	-65.59
15.735299	-65.16
15.963385	-64.73
16.194778	-64.33
16.429525	-63.96
16.667674	-63.57
16.909275	-63.26
17.154379	-62.99
17.403035	-62.77
17.655296	-62.58
17.911213	-62.35
18.170840	-62.05
18.434230	-61.77
18.701438	-61.64
18.972519	-61.64
19.247530	-61.36
19.526527	-60.09
19.809568	-57.83
20.096712	-55.27
20.388018	-52.83
20.683546	-50.41
20.983358	-47.81
21.287517	-44.99
21.596084	-42.18
21.909123	-39.59
22.226701	-37.36
22.548881	-35.53
22.875732	-34.10
23.207320	-33.11
23.543715	-32.49
23.884986	-32.19
24.231204	-32.19
24.582441	-32.45
24.938768	-33.01
25.300261	-33.84
25.666993	-35.16
26.039042	-36.92
26.416483	-39.52
26.799396	-42.83
27.187858	-47.11
27.581952	-51.79
27.981758	-54.65
28.387360	-55.86
28.798840	-56.66
29.216286	-56.66
29.639782	-55.91
30.069416	-55.15
30.505279	-54.62
30.947459	-54.35
31.396049	-54.35
31.851141	-54.57
32.312830	-54.82
32.781212	-54.92
33.256382	-54.81
33.738440	-54.46
34.227486	-53.93
34.723620	-53.45
35.226947	-53.25
35.737568	-53.37
36.255592	-53.49
36.781124	-53.04
37.314274	-51.17
37.855152	-47.98
38.403871	-44.75
38.960543	-42.34
39.525284	-41.04
40.098211	-40.76
40.679443	-41.31
41.269100	-42.60
41.867304	-44.78
42.474180	-48.25
43.089852	-53.16
43.714448	-57.04
44.348098	-57.55
44.990933	-57.51
45.643086	-57.33
46.304692	-57.04
46.975888	-56.93
47.656813	-56.96
48.347609	-56.40
49.048418	-54.95
49.759385	-53.59
50.480657	-52.88
51.212385	-52.88
51.954719	-53.63
52.707813	-54.54
53.471824	-54.22
54.246909	-52.97
55.033230	-51.80
55.830948	-51.27
56.640229	-49.46
57.461241	-44.85
58.294153	-40.59
59.139139	-37.47
59.996373	-36.07
60.866033	-36.96
61.748299	-40.07
62.643354	-44.79
63.551382	-50.99
64.472573	-54.78
65.407116	-54.62
66.355206	-54.66
67.317038	-54.91
68.292813	-54.70
69.282731	-53.22
70.286999	-51.76
71.305824	-51.79
72.339416	-53.14
73.387991	-55.43
74.451765	-57.42
75.530959	-56.96
76.625796	-54.26
77.736503	-52.63
78.863310	-53.55
80.006450	-55.13
81.166160	-55.83
82.342680	-56.16
83.536255	-56.55
84.747130	-57.09
85.975557	-57.79
87.221791	-57.39
88.486089	-56.47
89.768713	-56.27
91.069929	-56.00
92.390007	-54.75
93.729219	-54.25
95.087844	-56.31
96.466162	-50.72
97.864459	-40.61
99.283025	-34.64
100.722153	-34.59
102.182141	-39.44
103.663293	-51.42
105.165914	-58.80
106.690316	-58.10
108.236814	-58.07
109.805729	-60.97
111.397386	-63.28
113.012114	-62.46
114.650248	-60.77
116.312128	-60.86
117.998096	-61.55
119.708503	-62.23
121.443703	-58.86
123.204054	-55.06
124.989923	-54.57
126.801678	-57.29
128.639694	-59.17
130.504354	-58.72
132.396041	-54.77
134.315150	-54.13
136.262076	-58.61
138.237223	-58.23
140.241000	-56.18
142.273823	-55.87
144.336111	-55.12
146.428293	-57.86
148.550802	-56.51
150.704076	-53.65
152.888563	-54.37
155.104715	-56.87
157.352990	-56.48
159.633854	-57.99
161.947780	-57.86
164.295247	-54.69
166.676741	-55.82
169.092755	-59.63
171.543790	-62.13
174.030353	-61.44
176.552959	-52.73
179.112131	-40.96
181.708398	-42.55
184.342299	-55.85
187.014379	-60.19
189.725192	-62.19
192.475298	-62.78
195.265267	-62.57
198.095678	-61.64
200.967116	-60.52
203.880176	-56.39
206.835462	-56.81
209.833585	-58.87
212.875166	-57.61
215.960836	-60.60
219.091233	-61.34
222.267006	-62.79
225.488813	-63.75
228.757320	-61.54
232.073205	-61.74
235.437154	-62.73
238.849865	-65.88
242.312043	-63.34
245.824407	-63.42
249.387683	-64.18
253.002609	-62.34
256.669935	-57.65
260.390419	-62.05
264.164832	-62.74
267.993956	-59.13
271.878584	-60.74
275.819521	-62.46
279.817582	-65.15
283.873596	-64.22
287.988403	-64.84
292.162855	-69.48
296.397817	-68.62
300.694165	-65.42
305.052789	-68.97
309.474593	-67.54
313.960491	-66.57
318.511414	-65.06
323.128303	-67.34
327.812115	-69.53
332.563820	-67.04
337.384402	-47.83
342.274859	-46.50
347.236204	-67.79
352.269465	-67.19
357.375684	-67.74
362.555919	-68.17
367.811243	-66.04
373.142743	-68.14
378.551525	-70.36
384.038708	-69.58
389.605429	-68.57
395.252841	-67.20
400.982113	-67.67
406.794432	-65.09
412.691002	-68.54
418.673044	-70.51
424.741797	-68.55
430.898518	-69.36
437.144481	-64.41
443.480981	-64.71
449.909331	-64.25
456.430860	-68.46
463.046920	-68.26
469.758882	-69.79
476.568134	-71.51
483.476089	-72.61
490.484175	-75.19
497.593845	-72.35
504.806572	-72.21
512.123848	-71.80
519.547190	-73.45
527.078134	-72.76
534.718242	-72.16
542.469094	-72.19
550.332296	-73.42
558.309477	-74.83
566.402289	-71.99
574.612408	-73.69
582.941535	-75.38
591.391394	-75.11
599.963735	-55.30
608.660334	-77.38
617.482992	-78.49
626.433537	-78.74
635.513821	-79.54
644.725726	-79.90
654.071160	-81.37
663.552057	-80.44
673.170382	-79.20
682.928127	-83.09
692.827312	-84.02
702.869989	-80.75
713.058235	-81.24
723.394163	-80.93
733.879912	-81.80
744.517654	-83.90
755.309592	-85.66
766.257962	-83.39
777.365030	-84.48
788.633098	-87.76
800.064499	-87.91
811.661600	-86.65
823.426804	-84.49
835.362547	-83.72
847.471301	-84.52
859.755574	-84.58
872.217910	-86.19
884.860890	-87.72
897.687132	-88.44
910.699294	-86.81
923.900070	-86.97
937.292194	-90.89
950.878439	-88.31
964.661620	-89.15
978.644591	-89.59
992.830248	-67.81
1007.221529	-67.37
1021.821414	-91.85
1036.632928	-90.03
1051.659138	-91.96
1066.903156	-91.45
1082.368140	-91.30
1098.057291	-91.07
1113.973860	-92.00
1130.121143	-90.95
1146.502484	-92.75
1163.121276	-92.93
1179.980961	-95.52
1197.085030	-97.87
1214.437027	-95.89
1232.040544	-95.36
1249.899229	-94.97
1268.016778	-95.97
1286.396945	-97.78
1305.043536	-96.89
1323.960414	-97.61
1343.151496	-97.81
1362.620756	-99.03
1382.372227	-98.00
1402.410000	-100.84
1422.738225	-100.33
1443.361112	-98.65
1464.282931	-99.83
1485.508017	-100.49
1507.040765	-98.72
1528.885634	-97.80
1551.047150	-100.19
1573.529901	-98.69
1596.338544	-100.47
1619.477804	-102.27
1642.952471	-101.19
1666.767409	-102.93
1690.927550	-104.64
1715.437896	-105.36
1740.303526	-105.72
1765.529587	-104.89
1791.121306	-103.79
1817.083982	-104.87
1843.422992	-104.60
1870.143792	-105.20
1897.251916	-78.88
1924.752977	-104.92
1952.652672	-105.29
1980.956779	-107.21
2009.671159	-108.17
2038.801761	-110.81
2068.354617	-110.69
2098.335847	-109.15
2128.751662	-108.95
2159.608360	-109.77
2190.912333	-111.61
2222.670063	-112.08
2254.888128	-111.61
2287.573200	-112.09
2320.732050	-113.65
2354.371544	-113.70
2388.498649	-111.44
2423.120434	-111.24
2458.244069	-111.33
2493.876828	-111.72
2530.026092	-111.79
2566.699346	-114.22
2603.904187	-115.40
2641.648320	-116.83
2679.939562	-116.55
2718.785844	-115.18
2758.195211	-116.15
2798.175824	-113.51
2838.735965	-113.70
2879.884033	-114.14
2921.628551	-113.52
2963.978165	-112.60
3006.941645	-113.27
3050.527890	-115.25
3094.745927	-115.29
3139.604913	-114.25
3185.114139	-112.12
3231.283032	-111.24
3278.121151	-111.83
3325.638200	-112.63
3373.844017	-111.49
3422.748588	-111.27
3472.362041	-101.99
3522.694651	-84.42
3573.756843	-112.04
3625.559192	-112.02
3678.112427	-111.69
3731.427432	-112.21
3785.515249	-113.57
3840.387080	-115.08
3896.054290	-116.25
3952.528408	-114.95
4009.821129	-116.75
4067.944321	-120.33
4126.910020	-119.02
4186.730440	-118.65
4247.417969	-120.11
4308.985176	-119.15
4371.444813	-118.97
4434.809815	-119.74
4499.093306	-94.47
4564.308599	-120.05
4630.469202	-120.23
4697.588817	-120.65
4765.681344	-121.25
4834.760887	-121.00
4904.841752	-121.76
4975.938453	-122.06
5048.065717	-122.41
5121.238480	-121.61
5195.471897	-120.54
5270.781343	-120.13
5347.182415	-119.96
5424.690937	-121.63
5503.322961	-122.00
5583.094772	-122.84
5664.022893	-122.43
5746.124083	-122.53
5829.415347	-122.52
5913.913936	-122.19
5999.637349	-122.18
6086.603340	-121.28
6174.829922	-121.75
6264.335367	-121.63
6355.138211	-122.19
6447.257262	-121.15
6540.711597	-121.77
6635.520573	-121.88
6731.703824	-121.83
6829.281272	-122.00
6928.273125	-122.56
7028.699885	-122.82
7130.582353	-122.36
7233.941627	-121.67
7338.799116	-121.97
7445.176537	-121.80
7553.095920	-121.89
7662.579617	-121.90
7773.650302	-120.86
7886.330981	-121.11
8000.644989	-121.13
8116.616003	-121.82
8234.268041	-121.46
8353.625470	-121.46
8474.713009	-122.68
8597.555737	-121.96
8722.179097	-122.19
8848.608897	-122.97
8976.871324	-122.49
9106.992942	-121.94
9239.000700	-122.45
9372.921937	-122.39
9508.784391	-122.86
9646.616199	-121.84
9786.445908	-122.62
9928.302478	-122.81
10072.215288	-122.43
10218.214144	-122.94
10366.329284	-122.26
10516.591384	-122.97
10669.031565	-123.05
10823.681397	-123.25
10980.572911	-122.57
11139.738600	-123.10
11301.211429	-123.80
11465.024840	-122.78
11631.212760	-123.16
11799.809609	-122.80
11970.850305	-123.06
12144.370271	-122.81
12320.405445	-122.87
12498.992285	-123.18
12680.167779	-122.93
12863.969449	-123.34
13050.435363	-123.47
13239.604139	-123.00
13431.514956	-122.82
13626.207560	-122.54
13823.722274	-123.44
14024.100004	-123.28
14227.382252	-122.73
14433.611118	-122.60
14642.829314	-122.75
14855.080172	-122.70
15070.407650	-122.91
15288.856344	-122.29
15510.471498	-122.68
15735.299010	-122.71
15963.385443	-122.80
16194.778036	-122.94
16429.524714	-122.66
16667.674093	-122.42
16909.275497	-122.53
17154.378963	-122.35
17403.035256	-122.21
17655.295873	-122.00
17911.213060	-121.81
18170.839820	-122.48
18434.229924	-122.52
18701.437922	-121.93
18972.519156	-122.25
19247.529769	-122.21
19526.526718	-121.73
19809.567786	-121.82
20096.711592	-122.38
20388.017608	-121.87
20683.546166	-121.92
20983.358471	-121.53
21287.516618	-121.70
21596.083601	-121.76
21909.123326	-121.62
22226.700627	-121.81