	Heli-No		
Frequency (Hz)	Level (dB)

11.139739	-64.72
11.301211	-64.43
11.465025	-64.20
11.631213	-64.02
11.799810	-63.92
11.970850	-63.89
12.144370	-63.93
12.320405	-64.04
12.498992	-64.22
12.680168	-64.50
12.863969	-64.82
13.050435	-65.16
13.239604	-65.56
13.431515	-66.04
13.626208	-66.46
13.823722	-66.90
14.024100	-67.40
14.227382	-67.80
14.433611	-68.20
14.642829	-68.51
14.855080	-68.70
15.070408	-68.75
15.288856	-68.64
15.510471	-68.42
15.735299	-68.13
15.963385	-67.79
16.194778	-67.39
16.429525	-66.94
16.667674	-66.35
16.909275	-65.77
17.154379	-65.15
17.403035	-64.44
17.655296	-63.68
17.911213	-62.80
18.170840	-61.84
18.434230	-60.96
18.701438	-60.32
18.972519	-59.86
19.247530	-59.28
19.526527	-58.12
19.809568	-56.25
20.096712	-54.06
20.388018	-51.85
20.683546	-49.60
20.983358	-47.13
21.287517	-44.41
21.596084	-41.66
21.909123	-39.12
22.226701	-36.92
22.548881	-35.10
22.875732	-33.68
23.207320	-32.70
23.543715	-32.09
23.884986	-31.80
24.231204	-31.82
24.582441	-32.09
24.938768	-32.66
25.300261	-33.50
25.666993	-34.84
26.039042	-36.60
26.416483	-39.20
26.799396	-42.51
27.187858	-46.85
27.581952	-51.78
27.981758	-55.28
28.387360	-57.34
28.798840	-59.51
29.216286	-61.19
29.639782	-61.43
30.069416	-61.61
30.505279	-62.19
30.947459	-62.69
31.396049	-62.95
31.851141	-62.97
32.312830	-62.37
32.781212	-61.26
33.256382	-60.16
33.738440	-59.37
34.227486	-58.92
34.723620	-58.81
35.226947	-58.97
35.737568	-58.98
36.255592	-57.94
36.781124	-55.59
37.314274	-52.10
37.855152	-48.16
38.403871	-44.70
38.960543	-42.23
39.525284	-40.91
40.098211	-40.59
40.679443	-41.11
41.269100	-42.38
41.867304	-44.55
42.474180	-48.11
43.089852	-53.48
43.714448	-58.88
44.348098	-59.70
44.990933	-58.76
45.643086	-57.34
46.304692	-56.01
46.975888	-55.32
47.656813	-55.34
48.347609	-55.73
49.048418	-55.86
49.759385	-55.30
50.480657	-54.18
51.212385	-53.42
51.954719	-53.68
52.707813	-54.68
53.471824	-55.48
54.246909	-55.58
55.033230	-55.14
55.830948	-54.80
56.640229	-51.22
57.461241	-45.21
58.294153	-40.61
59.139139	-37.37
59.996373	-35.93
60.866033	-36.82
61.748299	-39.94
62.643354	-44.61
63.551382	-50.65
64.472573	-55.71
65.407116	-57.51
66.355206	-58.34
67.317038	-57.31
68.292813	-55.33
69.282731	-53.96
70.286999	-53.71
71.305824	-54.60
72.339416	-54.70
73.387991	-53.92
74.451765	-54.28
75.530959	-54.65
76.625796	-55.14
77.736503	-55.95
78.863310	-54.77
80.006450	-53.01
81.166160	-52.90
82.342680	-54.44
83.536255	-55.52
84.747130	-55.70
85.975557	-56.63
87.221791	-58.41
88.486089	-58.53
89.768713	-57.45
91.069929	-58.06
92.390007	-60.55
93.729219	-60.90
95.087844	-59.64
96.466162	-53.61
97.864459	-43.51
99.283025	-37.47
100.722153	-37.38
102.182141	-42.20
103.663293	-54.53
105.165914	-63.11
106.690316	-63.26
108.236814	-62.61
109.805729	-63.29
111.397386	-64.47
113.012114	-64.49
114.650248	-63.59
116.312128	-64.61
117.998096	-64.03
119.708503	-62.15
121.443703	-59.47
123.204054	-58.46
124.989923	-59.93
126.801678	-58.69
128.639694	-56.81
130.504354	-59.88
132.396041	-62.63
134.315150	-61.73
136.262076	-61.26
138.237223	-60.91
140.241000	-59.15
142.273823	-59.56
144.336111	-59.95
146.428293	-58.37
148.550802	-60.47
150.704076	-58.54
152.888563	-56.67
155.104715	-59.82
157.352990	-61.40
159.633854	-59.98
161.947780	-58.95
164.295247	-59.33
166.676741	-59.97
169.092755	-58.27
171.543790	-61.81
174.030353	-60.30
176.552959	-55.34
179.112131	-43.58
181.708398	-45.26
184.342299	-60.58
187.014379	-66.74
189.725192	-65.88
192.475298	-63.55
195.265267	-62.46
198.095678	-61.50
200.967116	-58.04
203.880176	-57.01
206.835462	-56.57
209.833585	-54.59
212.875166	-55.11
215.960836	-58.65
219.091233	-57.59
222.267006	-57.86
225.488813	-58.65
228.757320	-57.32
232.073205	-58.29
235.437154	-60.49
238.849865	-56.86
242.312043	-57.19
245.824407	-58.22
249.387683	-58.29
253.002609	-60.17
256.669935	-62.41
260.390419	-60.87
264.164832	-59.18
267.993956	-63.39
271.878584	-58.33
275.819521	-59.70
279.817582	-60.63
283.873596	-64.33
287.988403	-61.91
292.162855	-63.25
296.397817	-62.46
300.694165	-61.93
305.052789	-62.93
309.474593	-61.72
313.960491	-62.36
318.511414	-59.66
323.128303	-59.53
327.812115	-60.15
332.563820	-62.03
337.384402	-42.36
342.274859	-41.08
347.236204	-62.96
352.269465	-62.67
357.375684	-65.24
362.555919	-61.22
367.811243	-64.35
373.142743	-63.14
378.551525	-62.75
384.038708	-65.47
389.605429	-63.50
395.252841	-60.86
400.982113	-61.40
406.794432	-62.77
412.691002	-63.17
418.673044	-63.52
424.741797	-61.92
430.898518	-62.01
437.144481	-60.04
443.480981	-59.70
449.909331	-61.62
456.430860	-59.40
463.046920	-61.52
469.758882	-64.54
476.568134	-63.31
483.476089	-64.35
490.484175	-65.42
497.593845	-67.75
504.806572	-66.91
512.123848	-66.00
519.547190	-66.87
527.078134	-65.83
534.718242	-64.26
542.469094	-63.42
550.332296	-64.22
558.309477	-64.36
566.402289	-68.11
574.612408	-67.68
582.941535	-68.21
591.391394	-66.61
599.963735	-43.66
608.660334	-69.48
617.482992	-69.07
626.433537	-66.29
635.513821	-67.58
644.725726	-67.17
654.071160	-69.21
663.552057	-68.59
673.170382	-65.93
682.928127	-64.35
692.827312	-68.94
702.869989	-67.24
713.058235	-67.08
723.394163	-69.06
733.879912	-70.53
744.517654	-71.59
755.309592	-70.45
766.257962	-70.24
777.365030	-73.61
788.633098	-76.02
800.064499	-74.24
811.661600	-75.13
823.426804	-69.71
835.362547	-70.22
847.471301	-71.19
859.755574	-71.22
872.217910	-71.64
884.860890	-72.78
897.687132	-74.22
910.699294	-74.47
923.900070	-72.84
937.292194	-72.23
950.878439	-72.98
964.661620	-73.22
978.644591	-73.97
992.830248	-47.77
1007.221529	-47.35
1021.821414	-71.14
1036.632928	-73.94
1051.659138	-72.51
1066.903156	-72.98
1082.368140	-73.49
1098.057291	-74.16
1113.973860	-72.95
1130.121143	-72.71
1146.502484	-72.95
1163.121276	-75.13
1179.980961	-75.24
1197.085030	-76.72
1214.437027	-76.02
1232.040544	-76.81
1249.899229	-76.68
1268.016778	-77.19
1286.396945	-78.58
1305.043536	-78.00
1323.960414	-79.71
1343.151496	-78.05
1362.620756	-79.26
1382.372227	-78.80
1402.410000	-81.13
1422.738225	-78.92
1443.361112	-81.32
1464.282931	-80.14
1485.508017	-81.01
1507.040765	-78.85
1528.885634	-78.42
1551.047150	-78.88
1573.529901	-79.61
1596.338544	-79.31
1619.477804	-79.58
1642.952471	-81.34
1666.767409	-80.74
1690.927550	-80.56
1715.437896	-82.98
1740.303526	-84.76
1765.529587	-82.23
1791.121306	-82.76
1817.083982	-81.54
1843.422992	-83.00
1870.143792	-80.63
1897.251916	-54.01
1924.752977	-80.71
1952.652672	-82.35
1980.956779	-80.92
2009.671159	-83.19
2038.801761	-83.57
2068.354617	-83.12
2098.335847	-81.93
2128.751662	-82.67
2159.608360	-82.54
2190.912333	-82.71
2222.670063	-81.68
2254.888128	-82.59
2287.573200	-81.51
2320.732050	-84.46
2354.371544	-82.89
2388.498649	-82.08
2423.120434	-80.97
2458.244069	-79.70
2493.876828	-80.73
2530.026092	-80.91
2566.699346	-80.71
2603.904187	-81.20
2641.648320	-81.42
2679.939562	-82.15
2718.785844	-81.55
2758.195211	-81.79
2798.175824	-82.95
2838.735965	-81.32
2879.884033	-81.38
2921.628551	-82.48
2963.978165	-80.60
3006.941645	-81.22
3050.527890	-80.56
3094.745927	-78.73
3139.604913	-80.04
3185.114139	-80.93
3231.283032	-79.71
3278.121151	-78.66
3325.638200	-79.36
3373.844017	-80.38
3422.748588	-78.53
3472.362041	-66.08
3522.694651	-48.05
3573.756843	-78.20
3625.559192	-78.57
3678.112427	-77.58
3731.427432	-77.32
3785.515249	-77.26
3840.387080	-78.22
3896.054290	-80.52
3952.528408	-79.36
4009.821129	-79.34
4067.944321	-81.08
4126.910020	-81.25
4186.730440	-81.63
4247.417969	-81.49
4308.985176	-80.96
4371.444813	-82.15
4434.809815	-82.61
4499.093306	-56.03
4564.308599	-83.96
4630.469202	-84.01
4697.588817	-85.02
4765.681344	-85.64
4834.760887	-84.94
4904.841752	-86.08
4975.938453	-88.46
5048.065717	-87.20
5121.238480	-86.86
5195.471897	-87.70
5270.781343	-85.97
5347.182415	-86.61
5424.690937	-87.31
5503.322961	-87.93
5583.094772	-89.72
5664.022893	-89.87
5746.124083	-91.22
5829.415347	-90.83
5913.913936	-91.61
5999.637349	-92.87
6086.603340	-93.23
6174.829922	-94.10
6264.335367	-93.36
6355.138211	-94.16
6447.257262	-92.70
6540.711597	-92.57
6635.520573	-93.76
6731.703824	-94.83
6829.281272	-96.86
6928.273125	-98.67
7028.699885	-98.53
7130.582353	-99.66
7233.941627	-100.50
7338.799116	-99.80
7445.176537	-99.46
7553.095920	-100.30
7662.579617	-100.62
7773.650302	-99.72
7886.330981	-99.81
8000.644989	-101.57
8116.616003	-100.84
8234.268041	-102.05
8353.625470	-103.28
8474.713009	-104.01
8597.555737	-105.07
8722.179097	-107.08
8848.608897	-107.33
8976.871324	-109.92
9106.992942	-108.84
9239.000700	-111.06
9372.921937	-111.08
9508.784391	-109.44
9646.616199	-109.11
9786.445908	-111.91
9928.302478	-112.44
10072.215288	-113.54
10218.214144	-114.79
10366.329284	-113.86
10516.591384	-114.15
10669.031565	-113.89
10823.681397	-114.69
10980.572911	-115.00
11139.738600	-115.48
11301.211429	-115.88
11465.024840	-116.34
11631.212760	-115.63
11799.809609	-112.63
11970.850305	-111.51
12144.370271	-111.60
12320.405445	-111.11
12498.992285	-111.39
12680.167779	-111.92
12863.969449	-111.36
13050.435363	-112.26
13239.604139	-113.25
13431.514956	-113.85
13626.207560	-114.91
13823.722274	-115.46
14024.100004	-113.52
14227.382252	-112.87
14433.611118	-108.95
14642.829314	-108.66
14855.080172	-112.87
15070.407650	-114.26
15288.856344	-119.13
15510.471498	-119.41
15735.299010	-119.49
15963.385443	-119.79
16194.778036	-119.72
16429.524714	-119.87
16667.674093	-119.76
16909.275497	-120.50
17154.378963	-119.77
17403.035256	-119.90
17655.295873	-119.64
17911.213060	-120.00
18170.839820	-119.98
18434.229924	-120.74
18701.437922	-120.40
18972.519156	-120.66
19247.529769	-120.26
19526.526718	-120.89
19809.567786	-120.62
20096.711592	-121.02
20388.017608	-120.91
20683.546166	-121.46
20983.358471	-121.20
21287.516618	-121.20
21596.083601	-121.31
21909.123326	-121.34
22226.700627	-121.18