	Pamir-H		
Frequency (Hz)	Level (dB)

11.139739	-64.73
11.301211	-64.28
11.465025	-63.86
11.631213	-63.47
11.799810	-63.08
11.970850	-62.74
12.144370	-62.44
12.320405	-62.17
12.498992	-61.95
12.680168	-61.75
12.863969	-61.62
13.050435	-61.54
13.239604	-61.53
13.431515	-61.60
13.626208	-61.72
13.823722	-61.91
14.024100	-62.21
14.227382	-62.49
14.433611	-62.84
14.642829	-63.17
14.855080	-63.45
15.070408	-63.68
15.288856	-63.81
15.510471	-63.88
15.735299	-63.91
15.963385	-63.91
16.194778	-63.91
16.429525	-63.89
16.667674	-63.86
16.909275	-63.84
17.154379	-63.85
17.403035	-63.89
17.655296	-63.87
17.911213	-63.71
18.170840	-63.35
18.434230	-62.88
18.701438	-62.53
18.972519	-62.20
19.247530	-61.38
19.526527	-59.52
19.809568	-56.91
20.096712	-54.25
20.388018	-51.80
20.683546	-49.43
20.983358	-46.90
21.287517	-44.16
21.596084	-41.40
21.909123	-38.85
22.226701	-36.65
22.548881	-34.83
22.875732	-33.40
23.207320	-32.43
23.543715	-31.82
23.884986	-31.52
24.231204	-31.54
24.582441	-31.80
24.938768	-32.38
25.300261	-33.22
25.666993	-34.55
26.039042	-36.31
26.416483	-38.92
26.799396	-42.23
27.187858	-46.51
27.581952	-51.18
27.981758	-54.03
28.387360	-55.35
28.798840	-56.53
29.216286	-57.31
29.639782	-57.42
30.069416	-57.52
30.505279	-57.76
30.947459	-57.91
31.396049	-57.92
31.851141	-57.89
32.312830	-57.80
32.781212	-57.62
33.256382	-57.30
33.738440	-56.72
34.227486	-55.87
34.723620	-54.97
35.226947	-54.14
35.737568	-53.35
36.255592	-52.44
36.781124	-51.30
37.314274	-49.40
37.855152	-46.49
38.403871	-43.43
38.960543	-41.10
39.525284	-39.83
40.098211	-39.55
40.679443	-40.09
41.269100	-41.36
41.867304	-43.52
42.474180	-46.94
43.089852	-51.83
43.714448	-56.20
44.348098	-57.64
44.990933	-58.37
45.643086	-58.48
46.304692	-57.90
46.975888	-57.22
47.656813	-56.72
48.347609	-56.50
49.048418	-56.49
49.759385	-56.52
50.480657	-56.40
51.212385	-56.19
51.954719	-56.03
52.707813	-55.71
53.471824	-55.02
54.246909	-54.38
55.033230	-54.04
55.830948	-53.87
56.640229	-50.11
57.461241	-44.09
58.294153	-39.54
59.139139	-36.36
59.996373	-34.96
60.866033	-35.88
61.748299	-39.07
62.643354	-43.76
63.551382	-49.04
64.472573	-51.37
65.407116	-51.90
66.355206	-53.22
67.317038	-54.89
68.292813	-55.81
69.282731	-55.81
70.286999	-55.69
71.305824	-55.56
72.339416	-55.19
73.387991	-54.77
74.451765	-54.72
75.530959	-54.78
76.625796	-54.78
77.736503	-55.01
78.863310	-55.93
80.006450	-56.98
81.166160	-56.74
82.342680	-55.31
83.536255	-54.45
84.747130	-55.21
85.975557	-56.55
87.221791	-56.81
88.486089	-56.24
89.768713	-56.05
91.069929	-56.57
92.390007	-57.57
93.729219	-58.55
95.087844	-58.58
96.466162	-51.32
97.864459	-41.06
99.283025	-35.03
100.722153	-34.98
102.182141	-39.87
103.663293	-52.34
105.165914	-60.27
106.690316	-60.67
108.236814	-60.47
109.805729	-59.09
111.397386	-59.94
113.012114	-61.03
114.650248	-61.78
116.312128	-62.77
117.998096	-62.04
119.708503	-59.29
121.443703	-55.58
123.204054	-54.43
124.989923	-55.97
126.801678	-57.08
128.639694	-56.60
130.504354	-57.03
132.396041	-56.60
134.315150	-56.50
136.262076	-56.79
138.237223	-57.26
140.241000	-56.52
142.273823	-56.93
144.336111	-56.05
146.428293	-56.14
148.550802	-55.67
150.704076	-55.69
152.888563	-55.59
155.104715	-55.88
157.352990	-54.63
159.633854	-53.46
161.947780	-54.87
164.295247	-52.07
166.676741	-51.23
169.092755	-52.43
171.543790	-53.48
174.030353	-56.66
176.552959	-49.88
179.112131	-38.31
181.708398	-40.04
184.342299	-54.91
187.014379	-57.49
189.725192	-56.22
192.475298	-55.86
195.265267	-55.18
198.095678	-52.49
200.967116	-51.95
203.880176	-51.65
206.835462	-51.25
209.833585	-51.19
212.875166	-51.79
215.960836	-50.86
219.091233	-51.62
222.267006	-51.73
225.488813	-53.14
228.757320	-54.78
232.073205	-55.19
235.437154	-52.94
238.849865	-53.45
242.312043	-54.68
245.824407	-55.87
249.387683	-56.61
253.002609	-55.27
256.669935	-54.15
260.390419	-52.48
264.164832	-52.33
267.993956	-51.44
271.878584	-52.15
275.819521	-53.85
279.817582	-52.91
283.873596	-54.65
287.988403	-57.50
292.162855	-57.49
296.397817	-55.64
300.694165	-56.10
305.052789	-57.36
309.474593	-56.84
313.960491	-57.79
318.511414	-56.93
323.128303	-56.35
327.812115	-58.13
332.563820	-56.99
337.384402	-40.17
342.274859	-38.83
347.236204	-59.72
352.269465	-62.24
357.375684	-62.56
362.555919	-61.27
367.811243	-61.22
373.142743	-61.40
378.551525	-62.85
384.038708	-62.03
389.605429	-64.30
395.252841	-64.20
400.982113	-62.94
406.794432	-64.90
412.691002	-64.84
418.673044	-63.93
424.741797	-64.95
430.898518	-65.34
437.144481	-66.08
443.480981	-64.22
449.909331	-66.44
456.430860	-66.45
463.046920	-67.78
469.758882	-69.55
476.568134	-70.55
483.476089	-71.79
490.484175	-73.27
497.593845	-74.28
504.806572	-76.74
512.123848	-75.34
519.547190	-75.94
527.078134	-75.60
534.718242	-75.60
542.469094	-74.91
550.332296	-73.66
558.309477	-75.69
566.402289	-74.92
574.612408	-74.99
582.941535	-76.86
591.391394	-75.64
599.963735	-52.75
608.660334	-75.94
617.482992	-77.53
626.433537	-75.51
635.513821	-76.75
644.725726	-78.70
654.071160	-78.72
663.552057	-79.40
673.170382	-80.00
682.928127	-79.04
692.827312	-79.43
702.869989	-79.28
713.058235	-79.81
723.394163	-79.90
733.879912	-82.81
744.517654	-84.40
755.309592	-84.67
766.257962	-83.99
777.365030	-86.32
788.633098	-87.80
800.064499	-90.49
811.661600	-90.25
823.426804	-88.77
835.362547	-89.69
847.471301	-88.58
859.755574	-88.13
872.217910	-89.38
884.860890	-89.49
897.687132	-89.48
910.699294	-91.57
923.900070	-92.12
937.292194	-93.13
950.878439	-94.66
964.661620	-96.33
978.644591	-97.38
992.830248	-69.76
1007.221529	-69.35
1021.821414	-94.72
1036.632928	-94.70
1051.659138	-95.34
1066.903156	-95.97
1082.368140	-95.90
1098.057291	-95.72
1113.973860	-97.07
1130.121143	-96.30
1146.502484	-96.50
1163.121276	-97.93
1179.980961	-99.66
1197.085030	-100.46
1214.437027	-101.02
1232.040544	-101.95
1249.899229	-101.54
1268.016778	-101.40
1286.396945	-102.39
1305.043536	-102.39
1323.960414	-103.03
1343.151496	-104.39
1362.620756	-104.72
1382.372227	-104.61
1402.410000	-104.14
1422.738225	-105.52
1443.361112	-105.56
1464.282931	-104.25
1485.508017	-104.72
1507.040765	-104.54
1528.885634	-105.76
1551.047150	-105.40
1573.529901	-106.26
1596.338544	-106.24
1619.477804	-107.13
1642.952471	-108.46
1666.767409	-108.52
1690.927550	-110.00
1715.437896	-109.30
1740.303526	-109.44
1765.529587	-110.15
1791.121306	-109.78
1817.083982	-109.98
1843.422992	-109.89
1870.143792	-108.98
1897.251916	-79.38
1924.752977	-109.19
1952.652672	-108.45
1980.956779	-108.46
2009.671159	-108.93
2038.801761	-110.78
2068.354617	-109.74
2098.335847	-109.97
2128.751662	-110.79
2159.608360	-110.58
2190.912333	-112.24
2222.670063	-114.16
2254.888128	-113.98
2287.573200	-113.14
2320.732050	-113.96
2354.371544	-113.44
2388.498649	-114.08
2423.120434	-114.06
2458.244069	-114.60
2493.876828	-114.48
2530.026092	-115.12
2566.699346	-115.20
2603.904187	-115.22
2641.648320	-116.26
2679.939562	-116.18
2718.785844	-114.95
2758.195211	-115.84
2798.175824	-116.53
2838.735965	-116.60
2879.884033	-115.99
2921.628551	-117.18
2963.978165	-117.33
3006.941645	-116.81
3050.527890	-116.07
3094.745927	-115.41
3139.604913	-115.16
3185.114139	-114.77
3231.283032	-115.65
3278.121151	-116.94
3325.638200	-116.28
3373.844017	-116.69
3422.748588	-116.40
3472.362041	-105.44
3522.694651	-87.52
3573.756843	-116.69
3625.559192	-118.81
3678.112427	-117.44
3731.427432	-116.25
3785.515249	-115.72
3840.387080	-117.56
3896.054290	-116.97
3952.528408	-116.33
4009.821129	-117.64
4067.944321	-118.37
4126.910020	-116.95
4186.730440	-115.68
4247.417969	-115.78
4308.985176	-116.95
4371.444813	-116.55
4434.809815	-114.97
4499.093306	-91.37
4564.308599	-116.17
4630.469202	-115.66
4697.588817	-118.07
4765.681344	-117.26
4834.760887	-118.13
4904.841752	-116.75
4975.938453	-117.88
5048.065717	-116.89
5121.238480	-117.00
5195.471897	-117.22
5270.781343	-118.34
5347.182415	-118.38
5424.690937	-119.25
5503.322961	-119.39
5583.094772	-119.80
5664.022893	-119.35
5746.124083	-120.33
5829.415347	-120.81
5913.913936	-120.48
5999.637349	-120.60
6086.603340	-120.86
6174.829922	-120.66
6264.335367	-118.90
6355.138211	-117.88
6447.257262	-118.39
6540.711597	-118.11
6635.520573	-116.54
6731.703824	-117.10
6829.281272	-117.26
6928.273125	-118.20
7028.699885	-119.55
7130.582353	-119.69
7233.941627	-120.56
7338.799116	-120.83
7445.176537	-121.29
7553.095920	-122.14
7662.579617	-121.93
7773.650302	-121.71
7886.330981	-121.41
8000.644989	-121.70
8116.616003	-121.90
8234.268041	-121.66
8353.625470	-121.23
8474.713009	-122.00
8597.555737	-121.77
8722.179097	-122.08
8848.608897	-122.20
8976.871324	-122.60
9106.992942	-122.46
9239.000700	-122.27
9372.921937	-122.36
9508.784391	-122.41
9646.616199	-122.46
9786.445908	-122.22
9928.302478	-122.29
10072.215288	-122.47
10218.214144	-122.10
10366.329284	-122.40
10516.591384	-122.07
10669.031565	-122.15
10823.681397	-122.32
10980.572911	-122.08
11139.738600	-122.79
11301.211429	-122.95
11465.024840	-122.52
11631.212760	-122.78
11799.809609	-122.32
11970.850305	-121.92
12144.370271	-121.92
12320.405445	-121.51
12498.992285	-121.04
12680.167779	-121.49
12863.969449	-120.88
13050.435363	-121.18
13239.604139	-121.53
13431.514956	-122.39
13626.207560	-122.30
13823.722274	-122.58
14024.100004	-122.50
14227.382252	-122.69
14433.611118	-122.72
14642.829314	-122.59
14855.080172	-122.06
15070.407650	-121.86
15288.856344	-120.89
15510.471498	-121.07
15735.299010	-122.03
15963.385443	-122.71
16194.778036	-122.63
16429.524714	-122.50
16667.674093	-122.56
16909.275497	-122.40
17154.378963	-122.38
17403.035256	-122.12
17655.295873	-122.61
17911.213060	-122.43
18170.839820	-121.87
18434.229924	-122.09
18701.437922	-122.18
18972.519156	-122.47
19247.529769	-121.80
19526.526718	-121.86
19809.567786	-122.14
20096.711592	-121.81
20388.017608	-121.83
20683.546166	-121.94
20983.358471	-121.83
21287.516618	-121.58
21596.083601	-121.46
21909.123326	-121.40
22226.700627	-121.59