	Heli-SennOn		
Frequency (Hz)	Level (dB)

11.139739	-66.85
11.301211	-66.55
11.465025	-66.32
11.631213	-66.15
11.799810	-66.04
11.970850	-66.03
12.144370	-66.08
12.320405	-66.20
12.498992	-66.38
12.680168	-66.66
12.863969	-66.97
13.050435	-67.29
13.239604	-67.62
13.431515	-67.99
13.626208	-68.25
13.823722	-68.45
14.024100	-68.59
14.227382	-68.59
14.433611	-68.48
14.642829	-68.25
14.855080	-67.88
15.070408	-67.37
15.288856	-66.80
15.510471	-66.09
15.735299	-65.37
15.963385	-64.58
16.194778	-63.76
16.429525	-62.97
16.667674	-62.12
16.909275	-61.44
17.154379	-60.84
17.403035	-60.33
17.655296	-59.95
17.911213	-59.63
18.170840	-59.35
18.434230	-59.14
18.701438	-59.06
18.972519	-59.08
19.247530	-58.95
19.526527	-58.15
19.809568	-56.48
20.096712	-54.33
20.388018	-52.11
20.683546	-49.83
20.983358	-47.31
21.287517	-44.57
21.596084	-41.79
21.909123	-39.23
22.226701	-37.02
22.548881	-35.20
22.875732	-33.77
23.207320	-32.80
23.543715	-32.19
23.884986	-31.90
24.231204	-31.92
24.582441	-32.19
24.938768	-32.77
25.300261	-33.61
25.666993	-34.94
26.039042	-36.71
26.416483	-39.31
26.799396	-42.61
27.187858	-46.88
27.581952	-51.51
27.981758	-54.38
28.387360	-55.83
28.798840	-57.27
29.216286	-58.41
29.639782	-58.78
30.069416	-58.96
30.505279	-58.96
30.947459	-58.33
31.396049	-57.17
31.851141	-55.77
32.312830	-54.27
32.781212	-52.90
33.256382	-51.89
33.738440	-51.35
34.227486	-51.33
34.723620	-51.78
35.226947	-52.54
35.737568	-53.38
36.255592	-53.86
36.781124	-53.40
37.314274	-51.34
37.855152	-48.04
38.403871	-44.79
38.960543	-42.39
39.525284	-41.11
40.098211	-40.83
40.679443	-41.40
41.269100	-42.69
41.867304	-44.84
42.474180	-48.21
43.089852	-52.89
43.714448	-56.79
44.348098	-57.82
44.990933	-57.98
45.643086	-57.55
46.304692	-56.64
46.975888	-55.55
47.656813	-54.56
48.347609	-54.17
49.048418	-54.71
49.759385	-56.10
50.480657	-57.76
51.212385	-58.63
51.954719	-57.74
52.707813	-55.79
53.471824	-53.90
54.246909	-52.65
55.033230	-52.17
55.830948	-52.57
56.640229	-50.76
57.461241	-45.19
58.294153	-40.54
59.139139	-37.27
59.996373	-35.82
60.866033	-36.72
61.748299	-39.90
62.643354	-44.56
63.551382	-49.85
64.472573	-52.31
65.407116	-52.70
66.355206	-53.83
67.317038	-55.73
68.292813	-57.25
69.282731	-57.30
70.286999	-56.35
71.305824	-55.23
72.339416	-54.74
73.387991	-55.11
74.451765	-56.18
75.530959	-57.06
76.625796	-56.50
77.736503	-55.40
78.863310	-55.26
80.006450	-55.86
81.166160	-56.33
82.342680	-56.79
83.536255	-57.94
84.747130	-57.88
85.975557	-57.80
87.221791	-57.63
88.486089	-57.74
89.768713	-58.51
91.069929	-58.43
92.390007	-58.32
93.729219	-58.91
95.087844	-56.90
96.466162	-52.40
97.864459	-43.82
99.283025	-37.81
100.722153	-37.69
102.182141	-42.49
103.663293	-54.82
105.165914	-63.34
106.690316	-64.00
108.236814	-64.07
109.805729	-63.25
111.397386	-65.18
113.012114	-64.98
114.650248	-62.24
116.312128	-62.03
117.998096	-62.93
119.708503	-57.54
121.443703	-54.80
123.204054	-56.01
124.989923	-56.94
126.801678	-56.73
128.639694	-59.26
130.504354	-59.52
132.396041	-56.38
134.315150	-55.48
136.262076	-57.09
138.237223	-60.19
140.241000	-56.86
142.273823	-55.65
144.336111	-58.91
146.428293	-55.84
148.550802	-55.20
150.704076	-52.64
152.888563	-53.72
155.104715	-57.75
157.352990	-57.96
159.633854	-60.59
161.947780	-58.77
164.295247	-56.62
166.676741	-56.22
169.092755	-57.57
171.543790	-59.71
174.030353	-61.53
176.552959	-53.59
179.112131	-42.25
181.708398	-43.86
184.342299	-59.52
187.014379	-63.36
189.725192	-62.33
192.475298	-64.47
195.265267	-61.29
198.095678	-60.93
200.967116	-59.83
203.880176	-57.39
206.835462	-61.76
209.833585	-55.66
212.875166	-55.77
215.960836	-57.53
219.091233	-58.13
222.267006	-58.36
225.488813	-60.49
228.757320	-59.07
232.073205	-58.36
235.437154	-65.48
238.849865	-62.64
242.312043	-66.53
245.824407	-62.58
249.387683	-61.20
253.002609	-63.86
256.669935	-63.70
260.390419	-63.28
264.164832	-62.18
267.993956	-61.35
271.878584	-58.59
275.819521	-62.13
279.817582	-60.96
283.873596	-62.61
287.988403	-65.00
292.162855	-66.02
296.397817	-64.55
300.694165	-64.79
305.052789	-61.57
309.474593	-60.87
313.960491	-63.40
318.511414	-62.27
323.128303	-60.70
327.812115	-58.58
332.563820	-63.56
337.384402	-43.18
342.274859	-41.83
347.236204	-65.66
352.269465	-62.21
357.375684	-62.28
362.555919	-62.43
367.811243	-60.98
373.142743	-63.53
378.551525	-65.44
384.038708	-61.51
389.605429	-63.20
395.252841	-61.59
400.982113	-62.89
406.794432	-61.02
412.691002	-62.52
418.673044	-59.03
424.741797	-62.66
430.898518	-65.44
437.144481	-60.40
443.480981	-61.34
449.909331	-62.64
456.430860	-62.11
463.046920	-61.27
469.758882	-62.75
476.568134	-63.68
483.476089	-65.42
490.484175	-66.64
497.593845	-68.04
504.806572	-67.87
512.123848	-67.00
519.547190	-65.82
527.078134	-66.59
534.718242	-64.54
542.469094	-62.79
550.332296	-63.98
558.309477	-67.53
566.402289	-65.40
574.612408	-65.85
582.941535	-67.62
591.391394	-68.77
599.963735	-45.60
608.660334	-65.83
617.482992	-69.59
626.433537	-68.87
635.513821	-70.20
644.725726	-68.84
654.071160	-69.22
663.552057	-69.29
673.170382	-69.43
682.928127	-68.92
692.827312	-72.12
702.869989	-71.84
713.058235	-70.25
723.394163	-71.92
733.879912	-74.70
744.517654	-74.97
755.309592	-75.18
766.257962	-75.02
777.365030	-74.94
788.633098	-74.80
800.064499	-72.38
811.661600	-72.23
823.426804	-72.70
835.362547	-69.09
847.471301	-74.38
859.755574	-74.60
872.217910	-75.99
884.860890	-76.03
897.687132	-73.92
910.699294	-76.87
923.900070	-73.71
937.292194	-74.92
950.878439	-73.35
964.661620	-73.67
978.644591	-74.15
992.830248	-50.72
1007.221529	-50.30
1021.821414	-73.81
1036.632928	-73.49
1051.659138	-73.30
1066.903156	-74.65
1082.368140	-75.32
1098.057291	-73.57
1113.973860	-74.31
1130.121143	-75.17
1146.502484	-75.17
1163.121276	-75.89
1179.980961	-75.38
1197.085030	-78.77
1214.437027	-77.86
1232.040544	-77.51
1249.899229	-78.19
1268.016778	-78.30
1286.396945	-75.62
1305.043536	-76.19
1323.960414	-76.19
1343.151496	-77.66
1362.620756	-78.54
1382.372227	-76.77
1402.410000	-77.99
1422.738225	-79.89
1443.361112	-79.80
1464.282931	-78.22
1485.508017	-80.02
1507.040765	-80.92
1528.885634	-79.77
1551.047150	-78.07
1573.529901	-79.70
1596.338544	-81.03
1619.477804	-80.30
1642.952471	-83.22
1666.767409	-84.70
1690.927550	-82.88
1715.437896	-84.27
1740.303526	-85.47
1765.529587	-84.98
1791.121306	-85.32
1817.083982	-84.32
1843.422992	-86.49
1870.143792	-84.14
1897.251916	-60.70
1924.752977	-85.62
1952.652672	-87.96
1980.956779	-88.66
2009.671159	-88.30
2038.801761	-89.14
2068.354617	-89.33
2098.335847	-89.01
2128.751662	-89.14
2159.608360	-89.78
2190.912333	-91.86
2222.670063	-89.15
2254.888128	-88.88
2287.573200	-89.79
2320.732050	-88.49
2354.371544	-89.86
2388.498649	-90.34
2423.120434	-89.21
2458.244069	-89.81
2493.876828	-90.85
2530.026092	-90.19
2566.699346	-90.70
2603.904187	-91.02
2641.648320	-91.76
2679.939562	-93.51
2718.785844	-92.42
2758.195211	-93.52
2798.175824	-93.27
2838.735965	-94.16
2879.884033	-92.61
2921.628551	-92.97
2963.978165	-93.75
3006.941645	-94.68
3050.527890	-95.16
3094.745927	-95.92
3139.604913	-94.97
3185.114139	-94.86
3231.283032	-96.20
3278.121151	-95.08
3325.638200	-97.71
3373.844017	-98.16
3422.748588	-99.20
3472.362041	-94.41
3522.694651	-77.23
3573.756843	-100.85
3625.559192	-102.61
3678.112427	-104.21
3731.427432	-103.55
3785.515249	-102.32
3840.387080	-104.17
3896.054290	-106.83
3952.528408	-104.05
4009.821129	-105.18
4067.944321	-106.40
4126.910020	-104.70
4186.730440	-106.76
4247.417969	-105.10
4308.985176	-102.82
4371.444813	-103.96
4434.809815	-107.92
4499.093306	-77.74
4564.308599	-104.29
4630.469202	-104.15
4697.588817	-105.67
4765.681344	-103.48
4834.760887	-103.39
4904.841752	-104.23
4975.938453	-105.52
5048.065717	-103.68
5121.238480	-101.68
5195.471897	-101.09
5270.781343	-100.76
5347.182415	-100.60
5424.690937	-101.55
5503.322961	-102.81
5583.094772	-102.65
5664.022893	-101.24
5746.124083	-101.19
5829.415347	-101.58
5913.913936	-100.36
5999.637349	-102.20
6086.603340	-101.18
6174.829922	-100.42
6264.335367	-99.30
6355.138211	-97.80
6447.257262	-98.68
6540.711597	-99.81
6635.520573	-98.94
6731.703824	-99.22
6829.281272	-98.59
6928.273125	-99.76
7028.699885	-98.70
7130.582353	-99.28
7233.941627	-103.39
7338.799116	-103.88
7445.176537	-106.09
7553.095920	-108.67
7662.579617	-108.29
7773.650302	-108.89
7886.330981	-109.97
8000.644989	-110.85
8116.616003	-109.54
8234.268041	-111.32
8353.625470	-112.04
8474.713009	-111.45
8597.555737	-112.07
8722.179097	-112.26
8848.608897	-113.00
8976.871324	-112.17
9106.992942	-112.55
9239.000700	-112.24
9372.921937	-113.65
9508.784391	-113.55
9646.616199	-113.46
9786.445908	-114.17
9928.302478	-115.34
10072.215288	-115.90
10218.214144	-116.85
10366.329284	-118.58
10516.591384	-120.15
10669.031565	-119.49
10823.681397	-119.72
10980.572911	-120.67
11139.738600	-120.45
11301.211429	-120.82
11465.024840	-121.48
11631.212760	-121.52
11799.809609	-121.25
11970.850305	-121.19
12144.370271	-120.82
12320.405445	-120.78
12498.992285	-119.52
12680.167779	-119.48
12863.969449	-119.72
13050.435363	-120.55
13239.604139	-120.87
13431.514956	-121.62
13626.207560	-122.15
13823.722274	-121.21
14024.100004	-121.98
14227.382252	-122.23
14433.611118	-121.62
14642.829314	-121.03
14855.080172	-120.03
15070.407650	-120.50
15288.856344	-121.42
15510.471498	-122.06
15735.299010	-122.24
15963.385443	-122.26
16194.778036	-122.11
16429.524714	-121.90
16667.674093	-122.10
16909.275497	-122.43
17154.378963	-121.94
17403.035256	-121.52
17655.295873	-121.90
17911.213060	-121.38
18170.839820	-121.73
18434.229924	-121.97
18701.437922	-121.76
18972.519156	-122.08
19247.529769	-122.08
19526.526718	-121.95
19809.567786	-121.85
20096.711592	-121.46
20388.017608	-121.51
20683.546166	-121.58
20983.358471	-121.53
21287.516618	-121.41
21596.083601	-121.47
21909.123326	-121.43
22226.700627	-121.45